  STEP   TOTAL TIME             LOCATION OF OBSERVATION POINTS (K,I,J)
                     20  50  50
     1    25.000       7.00850E-16
     2    50.000       4.67664E-15
     3    75.000       1.70306E-14
     4    100.00       5.01350E-14
     5    125.00       1.22529E-13
     6    150.00       2.63350E-13
     7    175.00       5.13534E-13
     8    200.00       9.28000E-13
     9    225.00       1.57781E-12
    10    250.00       2.55083E-12
    11    275.00       3.95468E-12
    12    300.00       5.91526E-12
    13    325.00       8.58137E-12
    14    350.00       1.21200E-11
    15    375.00       1.67237E-11
    16    400.00       2.26017E-11
    17    425.00       2.99908E-11
    18    450.00       3.91426E-11
    19    475.00       5.03366E-11
    20    500.00       6.38653E-11
    21    525.00       8.00486E-11
    22    550.00       9.92175E-11
    23    575.00       1.21729E-10
    24    600.00       1.47950E-10
    25    625.00       1.78269E-10
    26    650.00       2.13085E-10
    27    675.00       2.52818E-10
    28    700.00       2.97891E-10
    29    725.00       3.48749E-10
    30    750.00       4.05840E-10
    31    775.00       4.69628E-10
    32    800.00       5.40579E-10
    33    825.00       6.19176E-10
    34    850.00       7.05895E-10
    35    875.00       8.01235E-10
    36    900.00       9.05680E-10
    37    925.00       1.01974E-09
    38    950.00       1.14390E-09
    39    975.00       1.27867E-09
    40    1000.0       1.42456E-09
    41    1025.0       1.58207E-09
    42    1050.0       1.75168E-09
    43    1075.0       1.93393E-09
    44    1100.0       2.14905E-09
    45    1125.0       2.37229E-09
    46    1150.0       2.60641E-09
    47    1175.0       2.78004E-09
    48    1200.0       3.06130E-09
    49    1225.0       3.31702E-09
    50    1250.0       3.61821E-09
    51    1275.0       3.89899E-09
    52    1300.0       4.22589E-09
    53    1325.0       4.55649E-09
    54    1350.0       4.91156E-09
    55    1375.0       5.28186E-09
    56    1400.0       5.67230E-09
    57    1425.0       6.08124E-09
    58    1450.0       6.51000E-09
    59    1475.0       6.95859E-09
    60    1500.0       7.42756E-09
    61    1525.0       7.91725E-09
    62    1550.0       8.42801E-09
    63    1575.0       8.96026E-09
    64    1600.0       9.51428E-09
    65    1625.0       1.00905E-08
    66    1650.0       1.06891E-08
    67    1675.0       1.13106E-08
    68    1700.0       1.19552E-08
    69    1725.0       1.26233E-08
    70    1750.0       1.33150E-08
    71    1775.0       1.40307E-08
    72    1800.0       1.47706E-08
    73    1825.0       1.55352E-08
    74    1850.0       1.63244E-08
    75    1875.0       1.71387E-08
    76    1900.0       1.79781E-08
    77    1925.0       1.88431E-08
    78    1950.0       1.97336E-08
    79    1975.0       2.06501E-08
    80    2000.0       2.15925E-08
    81    2025.0       2.25612E-08
    82    2050.0       2.35562E-08
    83    2075.0       2.45777E-08
    84    2100.0       2.56259E-08
    85    2125.0       2.67009E-08
    86    2150.0       2.78028E-08
    87    2175.0       2.89318E-08
    88    2200.0       3.00879E-08
    89    2225.0       3.12712E-08
    90    2250.0       3.24818E-08
    91    2275.0       3.37199E-08
    92    2300.0       3.49854E-08
    93    2325.0       3.62785E-08
    94    2350.0       3.75990E-08
    95    2375.0       3.89473E-08
    96    2400.0       4.03231E-08
    97    2425.0       4.17267E-08
    98    2450.0       4.31578E-08
    99    2475.0       4.46167E-08
   100    2500.0       4.61032E-08
   101    2525.0       4.76175E-08
   102    2550.0       4.91594E-08
   103    2575.0       5.07290E-08
   104    2600.0       5.23260E-08
   105    2625.0       5.39508E-08
   106    2650.0       5.56029E-08
   107    2675.0       5.72827E-08
   108    2700.0       5.89897E-08
   109    2725.0       6.07242E-08
   110    2750.0       6.24858E-08
   111    2775.0       6.42747E-08
   112    2800.0       6.60906E-08
   113    2825.0       6.79336E-08
   114    2850.0       6.98034E-08
   115    2875.0       7.17001E-08
   116    2900.0       7.36234E-08
   117    2925.0       7.55734E-08
   118    2950.0       7.75497E-08
   119    2975.0       7.95526E-08
   120    3000.0       8.15814E-08
   121    3025.0       8.36365E-08
   122    3050.0       8.57174E-08
   123    3075.0       8.78242E-08
   124    3100.0       8.99564E-08
   125    3125.0       9.21144E-08
   126    3150.0       9.42974E-08
   127    3175.0       9.65059E-08
   128    3200.0       9.87391E-08
   129    3225.0       1.00997E-07
   130    3250.0       1.03280E-07
   131    3275.0       1.05587E-07
   132    3300.0       1.07919E-07
   133    3325.0       1.10275E-07
   134    3350.0       1.12654E-07
   135    3375.0       1.15058E-07
   136    3400.0       1.17485E-07
   137    3425.0       1.19935E-07
   138    3450.0       1.22408E-07
   139    3475.0       1.24905E-07
   140    3500.0       1.27424E-07
   141    3525.0       1.29966E-07
   142    3550.0       1.32530E-07
   143    3575.0       1.35116E-07
   144    3600.0       1.37724E-07
   145    3625.0       1.40354E-07
   146    3650.0       1.43005E-07
   147    3675.0       1.45678E-07
   148    3700.0       1.48371E-07
   149    3725.0       1.51086E-07
   150    3750.0       1.53821E-07
   151    3775.0       1.56577E-07
   152    3800.0       1.59352E-07
   153    3825.0       1.62148E-07
   154    3850.0       1.64963E-07
   155    3875.0       1.67798E-07
   156    3900.0       1.70652E-07
   157    3925.0       1.73525E-07
   158    3950.0       1.76417E-07
   159    3975.0       1.79327E-07
   160    4000.0       1.82256E-07
   161    4025.0       1.85203E-07
   162    4050.0       1.88167E-07
   163    4075.0       1.91150E-07
   164    4100.0       1.94149E-07
   165    4125.0       1.97166E-07
   166    4150.0       2.00200E-07
   167    4175.0       2.03251E-07
   168    4200.0       2.06317E-07
   169    4225.0       2.09401E-07
   170    4250.0       2.12500E-07
   171    4275.0       2.15615E-07
   172    4300.0       2.18745E-07
   173    4325.0       2.21891E-07
   174    4350.0       2.25051E-07
   175    4375.0       2.28227E-07
   176    4400.0       2.31417E-07
   177    4425.0       2.34622E-07
   178    4450.0       2.37840E-07
   179    4475.0       2.41073E-07
   180    4500.0       2.44319E-07
   181    4525.0       2.47578E-07
   182    4550.0       2.50851E-07
   183    4575.0       2.54137E-07
   184    4600.0       2.57435E-07
   185    4625.0       2.60746E-07
   186    4650.0       2.64068E-07
   187    4675.0       2.67404E-07
   188    4700.0       2.70750E-07
   189    4725.0       2.74109E-07
   190    4750.0       2.77478E-07
   191    4775.0       2.80860E-07
   192    4800.0       2.84251E-07
   193    4825.0       2.87654E-07
   194    4850.0       2.91066E-07
   195    4875.0       2.94490E-07
   196    4900.0       2.97922E-07
   197    4925.0       3.01365E-07
   198    4950.0       3.04818E-07
   199    4975.0       3.08280E-07
   200    5000.0       3.11750E-07
   201    5025.0       3.15230E-07
   202    5050.0       3.18718E-07
   203    5075.0       3.22216E-07
   204    5100.0       3.25721E-07
   205    5125.0       3.29234E-07
   206    5150.0       3.32755E-07
   207    5175.0       3.36284E-07
   208    5200.0       3.39820E-07
   209    5225.0       3.43363E-07
   210    5250.0       3.46913E-07
   211    5275.0       3.50471E-07
   212    5300.0       3.54034E-07
   213    5325.0       3.57605E-07
   214    5350.0       3.61181E-07
   215    5375.0       3.64764E-07
   216    5400.0       3.68352E-07
   217    5425.0       3.71946E-07
   218    5450.0       3.75545E-07
   219    5475.0       3.79149E-07
   220    5500.0       3.82759E-07
   221    5525.0       3.86373E-07
   222    5550.0       3.89992E-07
   223    5575.0       3.93616E-07
   224    5600.0       3.97243E-07
   225    5625.0       4.00875E-07
   226    5650.0       4.04511E-07
   227    5675.0       4.08150E-07
   228    5700.0       4.11793E-07
   229    5725.0       4.15440E-07
   230    5750.0       4.19089E-07
   231    5775.0       4.22742E-07
   232    5800.0       4.26397E-07
   233    5825.0       4.30055E-07
   234    5850.0       4.33715E-07
   235    5875.0       4.37378E-07
   236    5900.0       4.41043E-07
   237    5925.0       4.44710E-07
   238    5950.0       4.48378E-07
   239    5975.0       4.52049E-07
   240    6000.0       4.55720E-07
   241    6025.0       4.59393E-07
   242    6050.0       4.63067E-07
   243    6075.0       4.66743E-07
   244    6100.0       4.70418E-07
   245    6125.0       4.74095E-07
   246    6150.0       4.77772E-07
   247    6175.0       4.81450E-07
   248    6200.0       4.85127E-07
   249    6225.0       4.88805E-07
   250    6250.0       4.92483E-07
   251    6275.0       4.96160E-07
   252    6300.0       4.99837E-07
   253    6325.0       5.03514E-07
   254    6350.0       5.07189E-07
   255    6375.0       5.10864E-07
   256    6400.0       5.14538E-07
   257    6425.0       5.18211E-07
   258    6450.0       5.21882E-07
   259    6475.0       5.25552E-07
   260    6500.0       5.29221E-07
   261    6525.0       5.32888E-07
   262    6550.0       5.36553E-07
   263    6575.0       5.40216E-07
   264    6600.0       5.43877E-07
   265    6625.0       5.47536E-07
   266    6650.0       5.51192E-07
   267    6675.0       5.54847E-07
   268    6700.0       5.58498E-07
   269    6725.0       5.62147E-07
   270    6750.0       5.65792E-07
   271    6775.0       5.69436E-07
   272    6800.0       5.73075E-07
   273    6825.0       5.76712E-07
   274    6850.0       5.80345E-07
   275    6875.0       5.83976E-07
   276    6900.0       5.87602E-07
   277    6925.0       5.91225E-07
   278    6950.0       5.94843E-07
   279    6975.0       5.98459E-07
   280    7000.0       6.02524E-07
   281    7025.0       6.06466E-07
   282    7050.0       6.10338E-07
   283    7075.0       6.14159E-07
   284    7100.0       6.17939E-07
   285    7125.0       6.21684E-07
   286    7150.0       6.25400E-07
   287    7175.0       6.29090E-07
   288    7200.0       6.32757E-07
   289    7225.0       6.36405E-07
   290    7250.0       6.40035E-07
   291    7275.0       6.43649E-07
   292    7300.0       6.47249E-07
