  STEP   TOTAL TIME             LOCATION OF OBSERVATION POINTS (K,I,J)
                     20  50  50
     1    25.000       7.66294E-15
     2    50.000       4.42327E-14
     3    75.000       1.59523E-13
     4    100.00       4.50036E-13
     5    125.00       1.07381E-12
     6    150.00       2.28238E-12
     7    175.00       4.40195E-12
     8    200.00       7.89074E-12
     9    225.00       1.32995E-11
    10    250.00       2.13298E-11
    11    275.00       3.30453E-11
    12    300.00       4.91602E-11
    13    325.00       7.09713E-11
    14    350.00       9.97956E-11
    15    375.00       1.37028E-10
    16    400.00       1.84274E-10
    17    425.00       2.43370E-10
    18    450.00       3.16008E-10
    19    475.00       4.04324E-10
    20    500.00       5.10097E-10
    21    525.00       6.36087E-10
    22    550.00       7.84086E-10
    23    575.00       9.57155E-10
    24    600.00       1.15684E-09
    25    625.00       1.38639E-09
    26    650.00       1.64779E-09
    27    675.00       1.94513E-09
    28    700.00       2.28009E-09
    29    725.00       2.65605E-09
    30    750.00       3.07591E-09
    31    775.00       3.54504E-09
    32    800.00       4.06452E-09
    33    825.00       4.64278E-09
    34    850.00       5.28056E-09
    35    875.00       5.98567E-09
    36    900.00       6.76491E-09
    37    925.00       7.62648E-09
    38    950.00       8.58311E-09
    39    975.00       9.64491E-09
    40    1000.0       1.08256E-08
    41    1025.0       1.21501E-08
    42    1050.0       1.36375E-08
    43    1075.0       1.53225E-08
    44    1100.0       1.72390E-08
    45    1125.0       1.94387E-08
    46    1150.0       2.19865E-08
    47    1175.0       2.49498E-08
    48    1200.0       2.84318E-08
    49    1225.0       3.25458E-08
    50    1250.0       3.74293E-08
    51    1275.0       4.32696E-08
    52    1300.0       5.02967E-08
    53    1325.0       5.88109E-08
    54    1350.0       6.91066E-08
    55    1375.0       8.16091E-08
    56    1400.0       9.68412E-08
    57    1425.0       1.15386E-07
    58    1450.0       1.38017E-07
    59    1475.0       1.65607E-07
    60    1500.0       1.99334E-07
    61    1525.0       2.39437E-07
    62    1550.0       2.90265E-07
    63    1575.0       3.51276E-07
    64    1600.0       4.25254E-07
    65    1625.0       5.15121E-07
    66    1650.0       6.23884E-07
    67    1675.0       7.55363E-07
    68    1700.0       9.10154E-07
    69    1725.0       1.10399E-06
    70    1750.0       1.32923E-06
    71    1775.0       1.60888E-06
    72    1800.0       1.93232E-06
    73    1825.0       2.32452E-06
    74    1850.0       2.79263E-06
    75    1875.0       3.34910E-06
    76    1900.0       4.01016E-06
    77    1925.0       4.79286E-06
    78    1950.0       5.71816E-06
    79    1975.0       6.80904E-06
    80    2000.0       8.09364E-06
    81    2025.0       9.60092E-06
    82    2050.0       1.13676E-05
    83    2075.0       1.34333E-05
    84    2100.0       1.58431E-05
    85    2125.0       1.86474E-05
    86    2150.0       2.19049E-05
    87    2175.0       2.56810E-05
    88    2200.0       3.00462E-05
    89    2225.0       3.50836E-05
    90    2250.0       4.08831E-05
    91    2275.0       4.75420E-05
    92    2300.0       5.51777E-05
    93    2325.0       6.39088E-05
    94    2350.0       7.38702E-05
    95    2375.0       8.52088E-05
    96    2400.0       9.81016E-05
    97    2425.0       1.12700E-04
    98    2450.0       1.29230E-04
    99    2475.0       1.47879E-04
   100    2500.0       1.68879E-04
   101    2525.0       1.92486E-04
   102    2550.0       2.18946E-04
   103    2575.0       2.48571E-04
   104    2600.0       2.81628E-04
   105    2625.0       3.18479E-04
   106    2650.0       3.59435E-04
   107    2675.0       4.04911E-04
   108    2700.0       4.55226E-04
   109    2725.0       5.10851E-04
   110    2750.0       5.72178E-04
   111    2775.0       6.39736E-04
   112    2800.0       7.13882E-04
   113    2825.0       7.95221E-04
   114    2850.0       8.84085E-04
   115    2875.0       9.81233E-04
   116    2900.0       1.08703E-03
   117    2925.0       1.20222E-03
   118    2950.0       1.32722E-03
   119    2975.0       1.46266E-03
   120    3000.0       1.60927E-03
   121    3025.0       1.76748E-03
   122    3050.0       1.93818E-03
   123    3075.0       2.12155E-03
   124    3100.0       2.31851E-03
   125    3125.0       2.53014E-03
   126    3150.0       2.75598E-03
   127    3175.0       2.99786E-03
   128    3200.0       3.25623E-03
   129    3225.0       3.53087E-03
   130    3250.0       3.82349E-03
   131    3275.0       4.13378E-03
   132    3300.0       4.46999E-03
   133    3325.0       4.82002E-03
   134    3350.0       5.18951E-03
   135    3375.0       5.57902E-03
   136    3400.0       6.00365E-03
   137    3425.0       6.45056E-03
   138    3450.0       6.88934E-03
   139    3475.0       7.36701E-03
   140    3500.0       7.86398E-03
   141    3525.0       8.38533E-03
   142    3550.0       8.93173E-03
   143    3575.0       9.50359E-03
   144    3600.0       1.00996E-02
   145    3625.0       1.07195E-02
   146    3650.0       1.13651E-02
   147    3675.0       1.20374E-02
   148    3700.0       1.27353E-02
   149    3725.0       1.34570E-02
   150    3750.0       1.42072E-02
   151    3775.0       1.49818E-02
   152    3800.0       1.57840E-02
   153    3825.0       1.66134E-02
   154    3850.0       1.74673E-02
   155    3875.0       1.83496E-02
   156    3900.0       1.92567E-02
   157    3925.0       2.01910E-02
   158    3950.0       2.11511E-02
   159    3975.0       2.21375E-02
   160    4000.0       2.31498E-02
   161    4025.0       2.41895E-02
   162    4050.0       2.52553E-02
   163    4075.0       2.63457E-02
   164    4100.0       2.74612E-02
   165    4125.0       2.86024E-02
   166    4150.0       2.97691E-02
   167    4175.0       3.09601E-02
   168    4200.0       3.21756E-02
   169    4225.0       3.34155E-02
   170    4250.0       3.46795E-02
   171    4275.0       3.59683E-02
   172    4300.0       3.72828E-02
   173    4325.0       3.86159E-02
   174    4350.0       3.99753E-02
   175    4375.0       4.13525E-02
   176    4400.0       4.27562E-02
   177    4425.0       4.41817E-02
   178    4450.0       4.56267E-02
   179    4475.0       4.70959E-02
   180    4500.0       4.85834E-02
   181    4525.0       5.00929E-02
   182    4550.0       5.16194E-02
   183    4575.0       5.31714E-02
   184    4600.0       5.47374E-02
   185    4625.0       5.63271E-02
   186    4650.0       5.79306E-02
   187    4675.0       5.95540E-02
   188    4700.0       6.12028E-02
   189    4725.0       6.28713E-02
   190    4750.0       6.45441E-02
   191    4775.0       6.62346E-02
   192    4800.0       6.79447E-02
   193    4825.0       6.96707E-02
   194    4850.0       7.14154E-02
   195    4875.0       7.31738E-02
   196    4900.0       7.49474E-02
   197    4925.0       7.67393E-02
   198    4950.0       7.85409E-02
   199    4975.0       8.03599E-02
   200    5000.0       8.21956E-02
   201    5025.0       8.40402E-02
   202    5050.0       8.59002E-02
   203    5075.0       8.77772E-02
   204    5100.0       8.96672E-02
   205    5125.0       9.14524E-02
   206    5150.0       9.34693E-02
   207    5175.0       9.54079E-02
   208    5200.0       9.72289E-02
   209    5225.0       9.92284E-02
   210    5250.0       0.10125    
   211    5275.0       0.10323    
   212    5300.0       0.10521    
   213    5325.0       0.10721    
   214    5350.0       0.10921    
   215    5375.0       0.11123    
   216    5400.0       0.11326    
   217    5425.0       0.11530    
   218    5450.0       0.11734    
   219    5475.0       0.11939    
   220    5500.0       0.12148    
   221    5525.0       0.12355    
   222    5550.0       0.12563    
   223    5575.0       0.12773    
   224    5600.0       0.12984    
   225    5625.0       0.13196    
   226    5650.0       0.13406    
   227    5675.0       0.13620    
   228    5700.0       0.13832    
   229    5725.0       0.14046    
   230    5750.0       0.14244    
   231    5775.0       0.14473    
   232    5800.0       0.14691    
   233    5825.0       0.14907    
   234    5850.0       0.15111    
   235    5875.0       0.15342    
   236    5900.0       0.15562    
   237    5925.0       0.15781    
   238    5950.0       0.16001    
   239    5975.0       0.16221    
   240    6000.0       0.16442    
   241    6025.0       0.16663    
   242    6050.0       0.16885    
   243    6075.0       0.17108    
   244    6100.0       0.17331    
   245    6125.0       0.17554    
   246    6150.0       0.17782    
   247    6175.0       0.18006    
   248    6200.0       0.18232    
   249    6225.0       0.18458    
   250    6250.0       0.18683    
   251    6275.0       0.18909    
   252    6300.0       0.19135    
   253    6325.0       0.19366    
   254    6350.0       0.19593    
   255    6375.0       0.19821    
   256    6400.0       0.20048    
   257    6425.0       0.20276    
   258    6450.0       0.20504    
   259    6475.0       0.20735    
   260    6500.0       0.20967    
   261    6525.0       0.21196    
   262    6550.0       0.21425    
   263    6575.0       0.21654    
   264    6600.0       0.21884    
   265    6625.0       0.22115    
   266    6650.0       0.22349    
   267    6675.0       0.22580    
   268    6700.0       0.22813    
   269    6725.0       0.23045    
   270    6750.0       0.23277    
   271    6775.0       0.23507    
   272    6800.0       0.23738    
   273    6825.0       0.23971    
   274    6850.0       0.24205    
   275    6875.0       0.24437    
   276    6900.0       0.24669    
   277    6925.0       0.24902    
   278    6950.0       0.25134    
   279    6975.0       0.25351    
   280    7000.0       0.25598    
   281    7025.0       0.25833    
   282    7050.0       0.26066    
   283    7075.0       0.26301    
   284    7100.0       0.26534    
   285    7125.0       0.26769    
   286    7150.0       0.27002    
   287    7175.0       0.27236    
   288    7200.0       0.27458    
   289    7225.0       0.27704    
   290    7250.0       0.27943    
   291    7275.0       0.28176    
   292    7300.0       0.28410    
